times (s) 	 Angular position (degrees) 
0.000000 	 -82.689552 
0.005000 	 -82.689552 
0.010000 	 -82.689552 
0.015000 	 -82.689552 
0.020000 	 -82.689552 
0.025000 	 -82.689552 
0.030000 	 -82.689552 
0.035000 	 -82.689552 
0.040000 	 -82.689552 
0.045000 	 -82.689552 
0.050000 	 -82.689552 
0.055000 	 -82.689552 
0.060000 	 -82.689552 
0.065000 	 -82.689552 
0.070000 	 -82.689552 
0.075000 	 -82.689552 
0.080000 	 -82.689552 
0.085000 	 -82.689552 
0.090000 	 -82.689552 
0.095000 	 -82.689552 
0.100000 	 -82.689552 
0.105000 	 -82.689552 
0.110000 	 -82.689552 
0.115000 	 -82.689552 
0.120000 	 -82.773085 
0.125000 	 -82.689552 
0.130000 	 -82.689552 
0.135000 	 -82.773085 
0.140000 	 -82.689552 
0.145000 	 -82.689552 
0.150000 	 -82.689552 
0.155000 	 -82.689552 
0.160000 	 -82.689552 
0.165000 	 -82.773085 
0.170000 	 -82.689552 
0.175000 	 -82.689552 
0.180000 	 -82.689552 
0.185000 	 -82.689552 
0.190000 	 -82.689552 
0.195000 	 -82.689552 
0.200000 	 -82.689552 
0.205000 	 -82.689552 
0.210000 	 -82.689552 
0.215000 	 -82.689552 
0.220000 	 -82.689552 
0.225000 	 -82.689552 
0.230000 	 -82.689552 
0.235000 	 -82.689552 
0.240000 	 -82.689552 
0.245000 	 -82.689552 
0.250000 	 -82.606018 
0.255000 	 -82.689552 
0.260000 	 -82.689552 
0.265000 	 -82.689552 
0.270000 	 -82.689552 
0.275000 	 -82.606018 
0.280000 	 -82.689552 
0.285000 	 -82.606018 
0.290000 	 -82.606018 
0.295000 	 -82.689552 
0.300000 	 -82.689552 
0.305000 	 -82.606018 
0.310000 	 -82.606018 
0.315000 	 -82.689552 
0.320000 	 -82.606018 
0.325000 	 -82.606018 
0.330000 	 -82.606018 
0.335000 	 -82.606018 
0.340000 	 -82.606018 
0.345000 	 -82.606018 
0.350000 	 -82.606018 
0.355000 	 -82.689552 
0.360000 	 -82.606018 
0.365000 	 -82.689552 
0.370000 	 -82.689552 
0.375000 	 -82.606018 
0.380000 	 -82.606018 
0.385000 	 -82.689552 
0.390000 	 -82.689552 
0.395000 	 -82.689552 
0.400000 	 -82.689552 
0.405000 	 -82.606018 
0.410000 	 -82.689552 
0.415000 	 -82.689552 
0.420000 	 -82.689552 
0.425000 	 -82.689552 
0.430000 	 -82.689552 
0.435000 	 -82.689552 
0.440000 	 -82.689552 
0.445000 	 -82.689552 
0.450000 	 -82.689552 
0.455000 	 -82.689552 
0.460000 	 -82.689552 
0.465000 	 -82.689552 
0.470000 	 -82.689552 
0.475000 	 -82.689552 
0.480000 	 -82.689552 
0.485000 	 -82.689552 
0.490000 	 -82.689552 
0.495000 	 -82.689552 
0.500000 	 -82.773085 
0.505000 	 -82.773085 
0.510000 	 -82.689552 
0.515000 	 -82.773085 
0.520000 	 -82.689552 
0.525000 	 -82.689552 
0.530000 	 -82.689552 
0.535000 	 -82.689552 
0.540000 	 -82.689552 
0.545000 	 -82.689552 
0.550000 	 -82.773085 
0.555000 	 -82.689552 
0.560000 	 -82.689552 
0.565000 	 -82.689552 
0.570000 	 -82.773085 
0.575000 	 -82.689552 
0.580000 	 -82.773085 
0.585000 	 -82.773085 
0.590000 	 -82.773085 
0.595000 	 -82.773085 
0.600000 	 -82.773085 
0.605000 	 -82.773085 
0.610000 	 -82.773085 
0.615000 	 -82.773085 
0.620000 	 -82.773085 
0.625000 	 -82.773085 
0.630000 	 -82.773085 
0.635000 	 -82.773085 
0.640000 	 -82.773085 
0.645000 	 -82.773085 
0.650000 	 -82.773085 
0.655000 	 -82.773085 
0.660000 	 -82.773085 
0.665000 	 -82.773085 
0.670000 	 -82.773085 
0.675000 	 -82.773085 
0.680000 	 -82.773085 
0.685000 	 -82.773085 
0.690000 	 -82.773085 
0.695000 	 -82.773085 
0.700000 	 -82.773085 
0.705000 	 -82.773085 
0.710000 	 -82.773085 
0.715000 	 -82.773085 
0.720000 	 -82.773085 
0.725000 	 -82.773085 
0.730000 	 -82.773085 
0.735000 	 -82.773085 
0.740000 	 -82.856619 
0.745000 	 -82.856619 
0.750000 	 -82.856619 
0.755000 	 -82.773085 
0.760000 	 -82.856619 
0.765000 	 -82.856619 
0.770000 	 -82.856619 
0.775000 	 -82.856619 
0.780000 	 -82.856619 
0.785000 	 -82.940152 
0.790000 	 -82.940152 
0.795000 	 -82.940152 
0.800000 	 -82.940152 
0.805000 	 -82.940152 
0.810000 	 -82.940152 
0.815000 	 -83.023686 
0.820000 	 -83.023686 
0.825000 	 -83.023686 
0.830000 	 -83.023686 
0.835000 	 -83.023686 
0.840000 	 -83.023686 
0.845000 	 -83.023686 
0.850000 	 -83.023686 
0.855000 	 -83.023686 
0.860000 	 -83.023686 
0.865000 	 -83.023686 
0.870000 	 -83.023686 
0.875000 	 -83.023686 
0.880000 	 -83.023686 
0.885000 	 -83.023686 
0.890000 	 -83.023686 
0.895000 	 -83.023686 
0.900000 	 -83.023686 
0.905000 	 -83.023686 
0.910000 	 -83.023686 
0.915000 	 -82.940152 
0.920000 	 -82.940152 
0.925000 	 -82.940152 
0.930000 	 -82.856619 
0.935000 	 -82.856619 
0.940000 	 -82.773085 
0.945000 	 -82.773085 
0.950000 	 -82.773085 
0.955000 	 -82.689552 
0.960000 	 -82.606018 
0.965000 	 -82.606018 
0.970000 	 -82.606018 
0.975000 	 -82.522485 
0.980000 	 -82.522485 
0.985000 	 -82.438951 
0.990000 	 -82.438951 
0.995000 	 -82.355417 
1.000000 	 -82.188350 
1.005000 	 -82.104817 
1.010000 	 -82.021283 
1.015000 	 -81.770683 
1.020000 	 -81.687149 
1.025000 	 -81.436548 
1.030000 	 -81.269481 
1.035000 	 -80.935347 
1.040000 	 -80.601213 
1.045000 	 -80.434146 
1.050000 	 -80.267079 
1.055000 	 -79.932944 
1.060000 	 -79.598810 
1.065000 	 -79.264676 
1.070000 	 -78.930542 
1.075000 	 -78.512874 
1.080000 	 -78.262273 
1.085000 	 -77.928139 
1.090000 	 -77.761072 
1.095000 	 -77.510471 
1.100000 	 -77.009270 
1.105000 	 -76.675135 
1.110000 	 -76.257468 
1.115000 	 -76.090401 
1.120000 	 -75.923333 
1.125000 	 -75.338599 
1.130000 	 -75.004464 
1.135000 	 -74.670330 
1.140000 	 -74.252662 
1.145000 	 -73.918528 
1.150000 	 -73.584394 
1.155000 	 -73.333793 
1.160000 	 -72.999659 
1.165000 	 -72.749058 
1.170000 	 -72.498458 
1.175000 	 -72.247857 
1.180000 	 -72.080790 
1.185000 	 -71.913723 
1.190000 	 -71.746656 
1.195000 	 -71.412521 
1.200000 	 -71.078387 
1.205000 	 -70.911320 
1.210000 	 -70.744253 
1.215000 	 -70.159518 
1.220000 	 -69.825384 
1.225000 	 -69.157115 
1.230000 	 -68.739447 
1.235000 	 -68.071179 
1.240000 	 -67.235843 
1.245000 	 -66.567575 
1.250000 	 -65.732239 
1.255000 	 -64.729837 
1.260000 	 -64.061568 
1.265000 	 -62.975632 
1.270000 	 -61.889696 
1.275000 	 -60.803759 
1.280000 	 -59.717823 
1.285000 	 -58.464820 
1.290000 	 -57.211816 
1.295000 	 -55.875279 
1.300000 	 -54.538742 
1.305000 	 -53.202205 
1.310000 	 -51.615068 
1.315000 	 -50.027930 
1.320000 	 -48.607860 
1.325000 	 -46.937189 
1.330000 	 -45.350051 
1.335000 	 -43.345245 
1.340000 	 -41.591041 
1.345000 	 -39.753302 
1.350000 	 -37.915564 
1.355000 	 -36.077826 
1.360000 	 -34.073020 
1.365000 	 -32.068215 
1.370000 	 -30.063410 
1.375000 	 -28.142138 
1.380000 	 -25.970265 
1.385000 	 -23.881926 
1.390000 	 -21.459453 
1.395000 	 -19.454648 
1.400000 	 -17.199242 
1.405000 	 -15.027369 
1.410000 	 -12.688429 
1.415000 	 -10.349490 
1.420000 	 -8.177617 
1.425000 	 -5.755144 
1.430000 	 -3.249137 
1.435000 	 -0.826664 
1.440000 	 1.345209 
1.445000 	 3.767682 
1.450000 	 6.357222 
1.455000 	 8.529095 
1.460000 	 11.118635 
1.465000 	 13.374041 
1.470000 	 15.712981 
1.475000 	 18.051920 
1.480000 	 20.641461 
1.485000 	 22.813333 
1.490000 	 24.901672 
1.495000 	 27.240612 
1.500000 	 29.496018 
1.505000 	 31.751424 
1.510000 	 33.839763 
1.515000 	 35.844568 
1.520000 	 37.932907 
1.525000 	 40.271847 
1.530000 	 42.193119 
1.535000 	 44.114391 
1.540000 	 46.035663 
1.545000 	 48.040468 
1.550000 	 49.794673 
1.555000 	 51.548878 
1.560000 	 53.136015 
1.565000 	 54.890220 
1.570000 	 56.560891 
1.575000 	 58.148029 
1.580000 	 59.568099 
1.585000 	 61.238770 
1.590000 	 62.324707 
1.595000 	 63.828311 
1.600000 	 65.081314 
1.605000 	 66.334317 
1.610000 	 67.336720 
1.615000 	 68.506190 
1.620000 	 69.508593 
1.625000 	 70.510995 
1.630000 	 71.429865 
1.635000 	 72.348734 
1.640000 	 73.100536 
1.645000 	 73.768804 
1.650000 	 74.437073 
1.655000 	 75.188875 
1.660000 	 75.690076 
1.665000 	 76.191277 
1.670000 	 76.776012 
1.675000 	 76.859546 
1.680000 	 77.110147 
1.685000 	 77.277214 
1.690000 	 77.444281 
1.695000 	 77.444281 
1.700000 	 77.444281 
1.705000 	 77.444281 
1.710000 	 77.444281 
1.715000 	 77.277214 
1.720000 	 77.193680 
1.725000 	 76.943079 
1.730000 	 76.776012 
1.735000 	 76.441878 
1.740000 	 75.690076 
1.745000 	 75.272408 
1.750000 	 74.771207 
1.755000 	 74.019405 
1.760000 	 73.267603 
1.765000 	 72.599334 
1.770000 	 71.680465 
1.775000 	 70.928663 
1.780000 	 70.009794 
1.785000 	 68.923858 
1.790000 	 67.921455 
1.795000 	 66.751985 
1.800000 	 65.582515 
1.805000 	 64.329512 
1.810000 	 62.992975 
1.815000 	 61.823505 
1.820000 	 60.403435 
1.825000 	 58.983364 
1.830000 	 57.396227 
1.835000 	 55.892623 
1.840000 	 54.305485 
1.845000 	 52.551280 
1.850000 	 50.964143 
1.855000 	 49.209938 
1.860000 	 47.455733 
1.865000 	 45.450928 
1.870000 	 43.696723 
1.875000 	 41.691918 
1.880000 	 39.770646 
1.885000 	 37.765840 
1.890000 	 35.677501 
1.895000 	 33.672696 
1.900000 	 31.584357 
1.905000 	 29.412484 
1.910000 	 27.157078 
1.915000 	 24.901672 
1.920000 	 22.896867 
1.925000 	 20.808528 
1.930000 	 18.302521 
1.935000 	 16.047115 
1.940000 	 13.791709 
1.945000 	 11.452769 
1.950000 	 9.280897 
1.955000 	 6.941957 
1.960000 	 4.603017 
1.965000 	 2.347611 
1.970000 	 0.008672 
1.975000 	 -2.163201 
1.980000 	 -4.418607 
1.985000 	 -6.506946 
1.990000 	 -8.762352 
1.995000 	 -10.850691 
2.000000 	 -13.106097 
2.005000 	 -15.277970 
2.010000 	 -17.366309 
2.015000 	 -19.538181 
2.020000 	 -21.375919 
2.025000 	 -23.714859 
2.030000 	 -25.469064 
2.035000 	 -27.306802 
2.040000 	 -29.228074 
2.045000 	 -31.316413 
2.050000 	 -32.903551 
2.055000 	 -34.824822 
2.060000 	 -36.579027 
2.065000 	 -38.333232 
2.070000 	 -39.920370 
2.075000 	 -41.423974 
2.080000 	 -43.094645 
2.085000 	 -44.765316 
2.090000 	 -46.018319 
2.095000 	 -47.605457 
2.100000 	 -48.941994 
2.105000 	 -50.027930 
2.110000 	 -51.364467 
2.115000 	 -52.450403 
2.120000 	 -53.703407 
2.125000 	 -54.622276 
2.130000 	 -55.708212 
2.135000 	 -56.710615 
2.140000 	 -57.462417 
2.145000 	 -58.381286 
2.150000 	 -59.216622 
2.155000 	 -59.968424 
2.160000 	 -60.553159 
2.165000 	 -61.221427 
2.170000 	 -61.639095 
2.175000 	 -62.223830 
2.180000 	 -62.641498 
2.185000 	 -63.142699 
2.190000 	 -63.393300 
2.195000 	 -63.643900 
2.200000 	 -63.810967 
2.205000 	 -63.810967 
2.210000 	 -63.894501 
2.215000 	 -63.978035 
2.220000 	 -63.894501 
2.225000 	 -63.810967 
2.230000 	 -63.810967 
2.235000 	 -63.643900 
2.240000 	 -63.309766 
2.245000 	 -63.059165 
2.250000 	 -62.557964 
2.255000 	 -62.056763 
2.260000 	 -61.555561 
2.265000 	 -61.054360 
2.270000 	 -60.386091 
2.275000 	 -59.801357 
2.280000 	 -59.049555 
2.285000 	 -58.214219 
2.290000 	 -57.295350 
2.295000 	 -56.627081 
2.300000 	 -55.541145 
2.305000 	 -54.455209 
2.310000 	 -53.536340 
2.315000 	 -52.283336 
2.320000 	 -51.280934 
2.325000 	 -49.860863 
2.330000 	 -48.941994 
2.335000 	 -47.605457 
2.340000 	 -45.934786 
2.345000 	 -44.765316 
2.350000 	 -43.178178 
2.355000 	 -41.591041 
2.360000 	 -40.087437 
2.365000 	 -38.500299 
2.370000 	 -36.829628 
2.375000 	 -35.075423 
2.380000 	 -33.571819 
2.385000 	 -31.650547 
2.390000 	 -29.896342 
2.395000 	 -28.142138 
2.400000 	 -26.220866 
2.405000 	 -24.216060 
2.410000 	 -22.211255 
2.415000 	 -20.289983 
2.420000 	 -18.285178 
2.425000 	 -16.196839 
2.430000 	 -14.359101 
2.435000 	 -12.270762 
2.440000 	 -10.098889 
2.445000 	 -8.094084 
2.450000 	 -5.838677 
2.455000 	 -3.583271 
2.460000 	 -1.578466 
2.465000 	 0.342806 
2.470000 	 2.765279 
2.475000 	 4.853618 
2.480000 	 7.025491 
2.485000 	 9.364430 
2.490000 	 11.369236 
2.495000 	 13.541108 
2.500000 	 15.712981 
2.505000 	 17.801320 
2.510000 	 20.056726 
2.515000 	 21.977998 
2.520000 	 24.149870 
2.525000 	 26.238209 
2.530000 	 28.159481 
2.535000 	 30.247820 
2.540000 	 32.169092 
2.545000 	 34.006830 
2.550000 	 35.844568 
2.555000 	 37.849374 
2.560000 	 39.687112 
2.565000 	 41.357783 
2.570000 	 43.195522 
2.575000 	 44.866193 
2.580000 	 46.453330 
2.585000 	 48.040468 
2.590000 	 49.627606 
2.595000 	 51.131210 
2.600000 	 52.467747 
2.605000 	 53.971351 
2.610000 	 55.140821 
2.615000 	 56.477357 
2.620000 	 57.730361 
2.625000 	 58.983364 
2.630000 	 59.902233 
2.635000 	 61.155237 
2.640000 	 62.074106 
2.645000 	 62.909442 
2.650000 	 63.828311 
2.655000 	 64.830713 
2.660000 	 65.415448 
2.665000 	 66.250784 
2.670000 	 66.835519 
2.675000 	 67.336720 
2.680000 	 67.921455 
2.685000 	 68.422656 
2.690000 	 68.840324 
2.695000 	 69.090925 
2.700000 	 69.341526 
2.705000 	 69.675660 
2.710000 	 69.926260 
2.715000 	 70.009794 
2.720000 	 70.093328 
2.725000 	 70.093328 
2.730000 	 70.009794 
2.735000 	 69.842727 
2.740000 	 69.592126 
2.745000 	 69.257992 
2.750000 	 69.007391 
2.755000 	 68.673257 
2.760000 	 68.255589 
2.765000 	 67.670854 
2.770000 	 67.169653 
2.775000 	 66.668452 
2.780000 	 66.167250 
2.785000 	 65.248381 
2.790000 	 64.663646 
2.795000 	 63.661244 
2.800000 	 62.742374 
2.805000 	 61.990572 
2.810000 	 60.988170 
2.815000 	 59.651633 
2.820000 	 58.816297 
2.825000 	 57.646827 
2.830000 	 56.393824 
2.835000 	 55.140821 
2.840000 	 53.971351 
2.845000 	 52.467747 
2.850000 	 51.214743 
2.855000 	 49.711139 
2.860000 	 48.207535 
2.865000 	 46.703931 
2.870000 	 45.116793 
2.875000 	 43.529656 
2.880000 	 41.775451 
2.885000 	 40.188313 
2.890000 	 38.099975 
2.895000 	 36.512837 
2.900000 	 34.758632 
2.905000 	 32.753827 
2.910000 	 30.999622 
2.915000 	 29.161884 
2.920000 	 27.073545 
2.925000 	 25.152273 
2.930000 	 23.231001 
2.935000 	 21.226196 
2.940000 	 19.054323 
2.945000 	 17.049518 
2.950000 	 15.044712 
2.955000 	 13.039907 
2.960000 	 11.035101 
2.965000 	 8.863229 
2.970000 	 6.774890 
2.975000 	 4.686551 
2.980000 	 2.765279 
2.985000 	 0.509873 
2.990000 	 -1.411399 
2.995000 	 -3.332671 
3.000000 	 -5.588077 
3.005000 	 -7.342282 
3.010000 	 -9.347087 
3.015000 	 -11.268359 
3.020000 	 -13.273164 
3.025000 	 -15.277970 
3.030000 	 -17.115708 
3.035000 	 -18.953446 
3.040000 	 -20.707651 
3.045000 	 -22.545389 
3.050000 	 -24.299594 
3.055000 	 -26.137332 
3.060000 	 -27.724470 
3.065000 	 -29.228074 
3.070000 	 -30.815212 
3.075000 	 -32.485883 
3.080000 	 -34.156554 
3.085000 	 -35.660158 
3.090000 	 -36.996695 
3.095000 	 -38.416765 
3.100000 	 -39.753302 
3.105000 	 -41.173373 
3.110000 	 -42.342843 
3.115000 	 -43.428779 
3.120000 	 -44.848850 
3.125000 	 -45.851252 
3.130000 	 -46.937189 
3.135000 	 -47.856058 
3.140000 	 -48.941994 
3.145000 	 -49.777330 
3.150000 	 -50.612665 
3.155000 	 -51.364467 
3.160000 	 -51.949202 
3.165000 	 -52.868071 
3.170000 	 -53.452806 
3.175000 	 -54.037541 
3.180000 	 -54.371675 
3.185000 	 -54.872877 
3.190000 	 -55.290544 
3.195000 	 -55.708212 
3.200000 	 -56.042346 
3.205000 	 -56.292947 
3.210000 	 -56.543548 
3.215000 	 -56.627081 
3.220000 	 -56.627081 
3.225000 	 -56.627081 
3.230000 	 -56.627081 
3.235000 	 -56.543548 
3.240000 	 -56.376481 
3.245000 	 -56.125880 
3.250000 	 -55.791746 
3.255000 	 -55.541145 
3.260000 	 -55.123477 
3.265000 	 -54.705809 
3.270000 	 -54.121075 
3.275000 	 -53.786940 
3.280000 	 -53.202205 
3.285000 	 -52.366870 
3.290000 	 -51.782135 
3.295000 	 -51.113866 
3.300000 	 -50.194997 
3.305000 	 -49.443195 
3.310000 	 -48.607860 
3.315000 	 -47.605457 
3.320000 	 -46.435987 
3.325000 	 -45.600652 
3.330000 	 -44.514715 
3.335000 	 -43.345245 
3.340000 	 -42.092242 
3.345000 	 -40.839239 
3.350000 	 -39.502702 
3.355000 	 -38.249698 
3.360000 	 -36.913161 
3.365000 	 -35.493091 
3.370000 	 -34.156554 
3.375000 	 -32.485883 
3.380000 	 -30.898745 
3.385000 	 -29.311608 
3.390000 	 -27.975071 
3.395000 	 -26.304399 
3.400000 	 -24.550195 
3.405000 	 -22.795990 
3.410000 	 -21.041785 
3.415000 	 -19.454648 
3.420000 	 -17.616909 
3.425000 	 -15.862705 
3.430000 	 -14.024966 
3.435000 	 -12.270762 
3.440000 	 -10.265956 
3.445000 	 -8.428218 
3.450000 	 -6.506946 
3.455000 	 -4.585674 
3.460000 	 -2.747936 
3.465000 	 -0.659597 
3.470000 	 1.178141 
3.475000 	 3.266480 
3.480000 	 5.020685 
3.485000 	 6.941957 
3.490000 	 8.863229 
3.495000 	 10.951568 
3.500000 	 12.789306 
3.505000 	 14.794112 
3.510000 	 16.715383 
3.515000 	 18.469588 
3.520000 	 20.641461 
3.525000 	 22.228598 
3.530000 	 24.066337 
3.535000 	 26.071142 
3.540000 	 27.574746 
3.545000 	 29.412484 
3.550000 	 31.083156 
3.555000 	 32.670293 
3.560000 	 34.508031 
3.565000 	 35.928102 
3.570000 	 37.682307 
3.575000 	 39.185911 
3.580000 	 40.689515 
3.585000 	 42.109585 
3.590000 	 43.529656 
3.595000 	 44.949726 
3.600000 	 46.119196 
3.605000 	 47.539267 
3.610000 	 48.708736 
3.615000 	 49.878206 
3.620000 	 51.047676 
3.625000 	 52.050079 
3.630000 	 53.052482 
3.635000 	 54.138418 
3.640000 	 54.890220 
3.645000 	 55.809089 
3.650000 	 56.560891 
3.655000 	 57.396227 
3.660000 	 58.064495 
3.665000 	 58.816297 
3.670000 	 59.233965 
3.675000 	 59.651633 
3.680000 	 60.236368 
3.685000 	 60.737569 
3.690000 	 61.155237 
3.695000 	 61.489371 
3.700000 	 61.739972 
3.705000 	 61.907039 
3.710000 	 61.990572 
3.715000 	 62.074106 
3.720000 	 61.990572 
3.725000 	 62.074106 
3.730000 	 62.074106 
3.735000 	 61.823505 
3.740000 	 61.739972 
3.745000 	 61.489371 
3.750000 	 61.155237 
3.755000 	 60.737569 
3.760000 	 60.319901 
3.765000 	 59.651633 
3.770000 	 59.233965 
3.775000 	 58.816297 
3.780000 	 58.148029 
3.785000 	 57.479760 
3.790000 	 56.727958 
3.795000 	 56.059690 
3.800000 	 55.057287 
3.805000 	 54.305485 
3.810000 	 53.303082 
3.815000 	 52.300680 
3.820000 	 51.381810 
3.825000 	 50.462941 
3.830000 	 49.126404 
3.835000 	 48.040468 
3.840000 	 46.787465 
3.845000 	 45.450928 
3.850000 	 44.197924 
3.855000 	 43.028454 
3.860000 	 41.524850 
3.865000 	 40.188313 
3.870000 	 38.517642 
3.875000 	 37.014038 
3.880000 	 35.593968 
3.885000 	 34.090364 
3.890000 	 32.419693 
3.895000 	 30.832555 
3.900000 	 29.245417 
3.905000 	 27.491213 
3.910000 	 26.071142 
3.915000 	 24.066337 
3.920000 	 22.395665 
3.925000 	 20.808528 
3.930000 	 18.720189 
3.935000 	 16.882451 
3.940000 	 15.128246 
3.945000 	 13.374041 
3.950000 	 11.536303 
3.955000 	 9.782098 
3.960000 	 7.777293 
3.965000 	 6.023088 
3.970000 	 4.185350 
3.975000 	 2.347611 
3.980000 	 0.426339 
3.985000 	 -1.244332 
3.990000 	 -2.998536 
3.995000 	 -4.919808 
4.000000 	 -6.506946 
4.005000 	 -8.344684 
4.010000 	 -10.098889 
4.015000 	 -11.936627 
4.020000 	 -13.440231 
4.025000 	 -15.277970 
4.030000 	 -16.781574 
4.035000 	 -18.368711 
4.040000 	 -19.955849 
4.045000 	 -21.459453 
4.050000 	 -22.963057 
4.055000 	 -24.466661 
4.060000 	 -26.137332 
4.065000 	 -27.306802 
4.070000 	 -28.726873 
4.075000 	 -30.146943 
4.080000 	 -31.567014 
4.085000 	 -32.569416 
4.090000 	 -33.989487 
4.095000 	 -35.075423 
4.100000 	 -36.161359 
4.105000 	 -37.414363 
4.110000 	 -38.416765 
4.115000 	 -39.335635 
4.120000 	 -40.505104 
4.125000 	 -41.173373 
4.130000 	 -42.175776 
4.135000 	 -43.011111 
4.140000 	 -43.679380 
4.145000 	 -44.598249 
4.150000 	 -45.099450 
4.155000 	 -45.767719 
4.160000 	 -46.185386 
4.165000 	 -46.853655 
4.170000 	 -47.354856 
4.175000 	 -47.688991 
4.180000 	 -48.023125 
4.185000 	 -48.440793 
4.190000 	 -48.691393 
4.195000 	 -48.941994 
4.200000 	 -49.109061 
4.205000 	 -49.109061 
4.210000 	 -49.109061 
4.215000 	 -49.109061 
4.220000 	 -49.109061 
4.225000 	 -49.025527 
4.230000 	 -48.858460 
4.235000 	 -48.691393 
4.240000 	 -48.357259 
4.245000 	 -47.939591 
4.250000 	 -47.688991 
4.255000 	 -47.354856 
4.260000 	 -46.853655 
4.265000 	 -46.185386 
4.270000 	 -45.767719 
4.275000 	 -45.099450 
4.280000 	 -44.681782 
4.285000 	 -43.679380 
4.290000 	 -43.094645 
4.295000 	 -42.342843 
4.300000 	 -41.340440 
4.305000 	 -40.505104 
4.310000 	 -39.586235 
4.315000 	 -38.667366 
4.320000 	 -37.664963 
4.325000 	 -36.495494 
4.330000 	 -35.576624 
4.335000 	 -34.407155 
4.340000 	 -33.070618 
4.345000 	 -31.901148 
4.350000 	 -30.648145 
4.355000 	 -29.311608 
4.360000 	 -28.309205 
4.365000 	 -26.805601 
4.370000 	 -25.385530 
4.375000 	 -24.048993 
4.380000 	 -22.461856 
4.385000 	 -21.041785 
4.390000 	 -19.621715 
4.395000 	 -17.951044 
4.400000 	 -16.447439 
4.405000 	 -15.027369 
4.410000 	 -13.273164 
4.415000 	 -11.853094 
