Times (s)	Angular Position (degrees)
0.000000	91.268303
0.005000	91.358577
0.010000	91.268303
0.015000	91.268303
0.020000	91.336009
0.025000	91.313440
0.030000	91.268303
0.035000	91.290872
0.040000	91.268303
0.045000	91.313440
0.050000	91.448850
0.055000	91.336009
0.060000	91.381145
0.065000	91.381145
0.070000	91.358577
0.075000	91.290872
0.080000	91.426282
0.085000	91.358577
0.090000	91.313440
0.095000	91.313440
0.100000	91.223167
0.105000	91.471419
0.110000	91.268303
0.115000	91.245735
0.120000	91.403714
0.125000	91.516555
0.130000	91.426282
0.135000	91.268303
0.140000	91.336009
0.145000	91.358577
0.150000	91.313440
0.155000	91.313440
0.160000	91.336009
0.165000	91.358577
0.170000	91.358577
0.175000	91.336009
0.180000	91.358577
0.185000	91.313440
0.190000	91.358577
0.195000	91.336009
0.200000	91.268303
0.205000	91.313440
0.210000	91.336009
0.215000	91.290872
0.220000	91.313440
0.225000	91.403714
0.230000	91.313440
0.235000	91.336009
0.240000	91.336009
0.245000	91.268303
0.250000	91.358577
0.255000	91.381145
0.260000	91.313440
0.265000	91.268303
0.270000	91.268303
0.275000	91.268303
0.280000	91.245735
0.285000	91.313440
0.290000	91.358577
0.295000	91.403714
0.300000	91.381145
0.305000	91.426282
0.310000	91.403714
0.315000	91.358577
0.320000	91.403714
0.325000	91.403714
0.330000	91.403714
0.335000	91.426282
0.340000	91.426282
0.345000	91.268303
0.350000	91.336009
0.355000	91.471419
0.360000	91.290872
0.365000	91.358577
0.370000	91.290872
0.375000	91.403714
0.380000	91.358577
0.385000	91.313440
0.390000	91.358577
0.395000	91.358577
0.400000	91.313440
0.405000	91.358577
0.410000	91.313440
0.415000	91.313440
0.420000	91.336009
0.425000	91.313440
0.430000	91.336009
0.435000	91.381145
0.440000	91.471419
0.445000	91.606829
0.450000	91.561692
0.455000	91.516555
0.460000	91.403714
0.465000	91.268303
0.470000	91.358577
0.475000	91.336009
0.480000	91.290872
0.485000	91.426282
0.490000	91.268303
0.495000	91.448850
0.500000	91.448850
0.505000	91.584261
0.510000	91.448850
0.515000	91.448850
0.520000	91.584261
0.525000	91.584261
0.530000	91.426282
0.535000	91.403714
0.540000	91.448850
0.545000	91.426282
0.550000	91.539124
0.555000	91.674534
0.560000	91.448850
0.565000	91.629397
0.570000	91.403714
0.575000	91.403714
0.580000	91.358577
0.585000	91.403714
0.590000	91.426282
0.595000	91.403714
0.600000	91.493987
0.605000	91.606829
0.610000	91.493987
0.615000	91.403714
0.620000	91.403714
0.625000	91.426282
0.630000	91.381145
0.635000	91.336009
0.640000	91.403714
0.645000	91.381145
0.650000	91.381145
0.655000	91.426282
0.660000	91.403714
0.665000	91.381145
0.670000	91.426282
0.675000	91.448850
0.680000	91.358577
0.685000	91.403714
0.690000	91.471419
0.695000	91.381145
0.700000	91.471419
0.705000	91.584261
0.710000	91.403714
0.715000	91.403714
0.720000	91.403714
0.725000	91.403714
0.730000	91.358577
0.735000	91.426282
0.740000	91.313440
0.745000	91.336009
0.750000	91.448850
0.755000	91.471419
0.760000	91.336009
0.765000	91.403714
0.770000	91.336009
0.775000	91.426282
0.780000	91.448850
0.785000	91.336009
0.790000	91.403714
0.795000	91.448850
0.800000	91.471419
0.805000	91.584261
0.810000	91.471419
0.815000	91.448850
0.820000	91.471419
0.825000	91.403714
0.830000	91.448850
0.835000	91.336009
0.840000	91.426282
0.845000	91.471419
0.850000	91.403714
0.855000	91.561692
0.860000	91.403714
0.865000	91.448850
0.870000	91.426282
0.875000	91.471419
0.880000	91.584261
0.885000	91.493987
0.890000	91.448850
0.895000	91.471419
0.900000	91.448850
0.905000	91.584261
0.910000	91.358577
0.915000	91.200598
0.920000	90.974915
0.925000	90.771800
0.930000	90.591253
0.935000	90.816936
0.940000	90.343001
0.945000	90.320432
0.950000	90.185022
0.955000	90.094749
0.960000	89.981907
0.965000	89.801360
0.970000	89.801360
0.975000	89.485403
0.980000	89.259719
0.985000	88.740647
0.990000	88.379553
0.995000	87.499387
1.000000	87.454251
1.005000	86.867473
1.010000	85.671350
1.015000	85.129710
1.020000	84.226975
1.025000	83.301672
1.030000	82.353801
1.035000	81.089973
1.040000	80.187239
1.045000	79.081389
1.050000	77.659582
1.055000	76.350618
1.060000	74.973948
1.065000	73.326457
1.070000	71.746672
1.075000	70.324865
1.080000	68.925627
1.085000	66.894475
1.090000	65.246984
1.095000	63.351242
1.100000	61.252385
1.105000	59.537189
1.110000	57.122375
1.115000	55.158927
1.120000	52.969797
1.125000	50.803234
1.130000	48.298146
1.135000	46.492677
1.140000	43.761906
1.145000	41.617911
1.150000	39.045118
1.155000	36.720577
1.160000	34.170353
1.165000	31.213898
1.170000	28.799083
1.175000	26.474542
1.180000	23.495518
1.185000	20.945294
1.190000	18.259659
1.195000	15.822276
1.200000	13.114073
1.205000	10.654122
1.210000	7.652530
1.215000	4.831485
1.220000	2.145850
1.225000	-0.584922
1.230000	-3.405967
1.235000	-6.136738
1.240000	-9.025488
1.245000	-11.643418
1.250000	-14.193643
1.255000	-16.946983
1.260000	-19.722891
1.265000	-21.957159
1.270000	-24.891045
1.275000	-27.328428
1.280000	-29.652969
1.285000	-32.316036
1.290000	-34.460030
1.295000	-36.716866
1.300000	-39.199386
1.305000	-41.072560
1.310000	-43.555079
1.315000	-45.834484
1.320000	-48.294435
1.325000	-50.280450
1.330000	-52.311603
1.335000	-54.433029
1.340000	-56.215929
1.345000	-58.179376
1.350000	-59.984845
1.355000	-61.722609
1.360000	-63.234689
1.365000	-65.040158
1.370000	-66.326554
1.375000	-67.928908
1.380000	-69.170168
1.385000	-70.614543
1.390000	-72.036349
1.395000	-73.119631
1.400000	-74.112639
1.405000	-74.857394
1.410000	-76.121223
1.415000	-77.497893
1.420000	-78.129807
1.425000	-79.009973
1.430000	-79.709592
1.435000	-80.318938
1.440000	-81.153967
1.445000	-81.289377
1.450000	-81.763313
1.455000	-82.101838
1.460000	-82.666047
1.465000	-82.936867
1.470000	-83.162551
1.475000	-83.004572
1.480000	-83.162551
1.485000	-82.914299
1.490000	-82.959436
1.495000	-83.027141
1.500000	-82.598342
1.505000	-81.853586
1.510000	-81.876154
1.515000	-81.740744
1.520000	-81.311945
1.525000	-80.612326
1.530000	-79.777297
1.535000	-79.438772
1.540000	-78.513469
1.545000	-77.836418
1.550000	-76.775705
1.555000	-75.805266
1.560000	-74.970236
1.565000	-73.819250
1.570000	-72.735969
1.575000	-71.494709
1.580000	-70.005197
1.585000	-68.854211
1.590000	-67.454972
1.595000	-65.694640
1.600000	-64.182560
1.605000	-62.512502
1.610000	-61.045558
1.615000	-59.533478
1.620000	-57.163800
1.625000	-55.493742
1.630000	-53.530294
1.635000	-52.018214
1.640000	-49.738810
1.645000	-47.775362
1.650000	-45.653937
1.655000	-43.306827
1.660000	-41.298243
1.665000	-39.063976
1.670000	-36.513751
1.675000	-34.414893
1.680000	-32.158057
1.685000	-29.630401
1.690000	-27.486407
1.695000	-24.868477
1.700000	-22.273116
1.705000	-19.226387
1.710000	-17.195235
1.715000	-14.802989
1.720000	-12.230195
1.725000	-9.612266
1.730000	-7.062041
1.735000	-4.195859
1.740000	-1.871318
1.745000	0.701475
1.750000	3.635362
1.755000	6.050176
1.760000	8.622969
1.765000	11.218331
1.770000	13.610577
1.775000	16.341348
1.780000	18.914141
1.785000	21.396661
1.790000	23.879181
1.795000	26.451974
1.800000	28.663673
1.805000	31.281603
1.810000	33.470734
1.815000	35.705001
1.820000	37.848995
1.825000	40.444357
1.830000	42.362667
1.835000	44.461525
1.840000	46.673224
1.845000	48.410988
1.850000	50.351867
1.855000	52.360451
1.860000	54.346467
1.865000	56.039094
1.870000	57.912267
1.875000	59.604894
1.880000	61.094406
1.885000	62.741896
1.890000	64.208840
1.895000	65.562941
1.900000	67.097590
1.905000	68.451692
1.910000	69.264152
1.915000	70.415139
1.920000	71.385578
1.925000	72.378586
1.930000	73.258752
1.935000	74.387170
1.940000	75.019084
1.945000	75.763840
1.950000	76.486028
1.955000	77.027668
1.960000	77.456467
1.965000	77.749856
1.970000	78.133518
1.975000	78.517180
1.980000	78.607454
1.985000	78.900842
1.990000	79.081389
1.995000	78.945979
2.000000	78.991116
2.005000	78.991116
2.010000	78.381770
2.015000	78.178655
2.020000	77.591877
2.025000	77.321057
2.030000	76.892258
2.035000	76.215207
2.040000	75.921819
2.045000	75.041653
2.050000	74.364602
2.055000	73.326457
2.060000	72.446291
2.065000	71.633830
2.070000	70.527981
2.075000	69.534973
2.080000	68.361418
2.085000	66.871906
2.090000	65.833762
2.095000	64.411955
2.100000	62.922443
2.105000	61.568342
2.110000	59.920851
2.115000	58.115383
2.120000	56.671008
2.125000	54.820402
2.130000	52.969797
2.135000	51.164328
2.140000	49.381427
2.145000	47.575959
2.150000	45.409396
2.155000	43.310538
2.160000	41.279386
2.165000	39.361075
2.170000	37.013966
2.175000	34.802267
2.180000	32.455157
2.185000	30.401437
2.190000	27.851212
2.195000	25.955470
2.200000	23.314972
2.205000	21.035567
2.210000	18.485342
2.215000	16.205938
2.220000	13.588008
2.225000	11.353741
2.230000	8.645538
2.235000	6.388702
2.240000	3.928750
2.245000	1.401094
2.250000	-1.036289
2.255000	-3.518809
2.260000	-6.114170
2.265000	-8.235596
2.270000	-10.876094
2.275000	-13.403750
2.280000	-15.750860
2.285000	-18.075401
2.290000	-20.309668
2.295000	-22.905030
2.300000	-25.049024
2.305000	-27.080176
2.310000	-29.472423
2.315000	-31.909805
2.320000	-33.805548
2.325000	-35.746427
2.330000	-37.935558
2.335000	-40.124688
2.340000	-41.907589
2.345000	-44.006446
2.350000	-45.902189
2.355000	-47.730226
2.360000	-49.558263
2.365000	-51.431437
2.370000	-52.875812
2.375000	-54.703849
2.380000	-56.103087
2.385000	-57.728009
2.390000	-59.082111
2.395000	-60.323371
2.400000	-61.767746
2.405000	-62.715617
2.410000	-64.114855
2.415000	-65.491525
2.420000	-66.461965
2.425000	-67.342131
2.430000	-68.447980
2.435000	-68.899347
2.440000	-69.802082
2.445000	-70.704816
2.450000	-71.201320
2.455000	-71.742961
2.460000	-72.690832
2.465000	-72.939084
2.470000	-73.367883
2.475000	-73.706408
2.480000	-74.157775
2.485000	-74.293185
2.490000	-74.473732
2.495000	-74.518869
2.500000	-74.360891
2.505000	-74.225480
2.510000	-74.180344
2.515000	-73.954660
2.520000	-73.932092
2.525000	-73.548430
2.530000	-72.939084
2.535000	-73.029357
2.540000	-71.946076
2.545000	-71.427004
2.550000	-71.065910
2.555000	-70.050334
2.560000	-69.508693
2.565000	-68.763937
2.570000	-67.635519
2.575000	-66.981037
2.580000	-65.649504
2.585000	-64.724201
2.590000	-63.370099
2.595000	-62.309386
2.600000	-61.000421
2.605000	-59.714025
2.610000	-58.337355
2.615000	-57.118664
2.620000	-55.313195
2.625000	-53.643136
2.630000	-52.198761
2.635000	-50.122472
2.640000	-48.926349
2.645000	-47.030607
2.650000	-45.112296
2.655000	-43.081144
2.660000	-41.501358
2.665000	-39.515343
2.670000	-37.348780
2.675000	-35.588448
2.680000	-33.399317
2.685000	-31.323028
2.690000	-29.472423
2.695000	-27.260723
2.700000	-24.868477
2.705000	-22.498799
2.710000	-20.309668
2.715000	-18.075401
2.720000	-15.999112
2.725000	-13.516592
2.730000	-11.169483
2.735000	-9.183467
2.740000	-6.339854
2.745000	-4.173291
2.750000	-1.893887
2.755000	0.498360
2.760000	2.800332
2.765000	5.215147
2.770000	7.629961
2.775000	9.977071
2.780000	12.143633
2.785000	14.423038
2.790000	16.770147
2.795000	19.004415
2.800000	21.216114
2.805000	23.630929
2.810000	25.820059
2.815000	27.580392
2.820000	29.837228
2.825000	31.845812
2.830000	33.989806
2.835000	35.953253
2.840000	37.826427
2.845000	39.947853
2.850000	41.821027
2.855000	43.558790
2.860000	45.341691
2.865000	46.876339
2.870000	48.704377
2.875000	50.284162
2.880000	51.728537
2.885000	53.308322
2.890000	54.639855
2.895000	56.219640
2.900000	57.573742
2.905000	58.927844
2.910000	60.033693
2.915000	61.116975
2.920000	62.087414
2.925000	63.193264
2.930000	63.915451
2.935000	65.179279
2.940000	65.811193
2.945000	66.397971
2.950000	67.007316
2.955000	67.616662
2.960000	68.248576
2.965000	68.948195
2.970000	69.151311
2.975000	69.422131
2.980000	69.873498
2.985000	69.850930
2.990000	69.918635
2.995000	70.031477
3.000000	70.031477
3.005000	70.099182
3.010000	69.963772
3.015000	69.738088
3.020000	69.286721
3.025000	68.948195
3.030000	68.609670
3.035000	68.022893
3.040000	67.390979
3.045000	66.691359
3.050000	66.194856
3.055000	65.562941
3.060000	64.592502
3.065000	63.825178
3.070000	62.922443
3.075000	61.839162
3.080000	60.778449
3.085000	59.650031
3.090000	58.408771
3.095000	57.235217
3.100000	56.016525
3.105000	54.549582
3.110000	53.127775
3.115000	51.570558
3.120000	50.171320
3.125000	48.478693
3.130000	46.898908
3.135000	45.409396
3.140000	43.603927
3.145000	41.956437
3.150000	40.015558
3.155000	38.097247
3.160000	36.404620
3.165000	34.260626
3.170000	32.410021
3.175000	30.581983
3.180000	28.122032
3.185000	26.406837
3.190000	24.059727
3.195000	21.960870
3.200000	20.087696
3.205000	17.853428
3.210000	15.686866
3.215000	13.452598
3.220000	11.173194
3.225000	9.096905
3.230000	6.998047
3.235000	4.650938
3.240000	2.484375
3.245000	0.250108
3.250000	-2.254980
3.255000	-4.286133
3.260000	-6.362422
3.265000	-8.664395
3.270000	-10.830957
3.275000	-13.223203
3.280000	-15.322061
3.285000	-17.398350
3.290000	-19.632618
3.295000	-21.708907
3.300000	-23.717491
3.305000	-25.364981
3.310000	-27.824932
3.315000	-29.675538
3.320000	-31.548712
3.325000	-33.489591
3.330000	-35.407901
3.335000	-37.100528
3.340000	-38.793155
3.345000	-40.666329
3.350000	-42.426661
3.355000	-43.803331
3.360000	-45.541095
3.365000	-47.143448
3.370000	-48.632960
3.375000	-49.625968
3.380000	-51.611984
3.385000	-52.582423
3.390000	-53.823683
3.395000	-55.200353
3.400000	-56.012814
3.405000	-57.321779
3.410000	-58.427628
3.415000	-59.375500
3.420000	-60.458781
3.425000	-60.910148
3.430000	-62.106271
3.435000	-62.760754
3.440000	-63.347531
3.445000	-63.731193
3.450000	-64.272834
3.455000	-64.724201
3.460000	-65.491525
3.465000	-65.626935
3.470000	-65.920324
3.475000	-66.100871
3.480000	-66.100871
3.485000	-66.461965
3.490000	-66.326554
3.495000	-66.349123
3.500000	-66.055734
3.505000	-65.446388
3.510000	-65.897756
3.515000	-65.649504
3.520000	-65.333547
3.525000	-64.904748
3.530000	-64.317970
3.535000	-63.776330
3.540000	-63.212121
3.545000	-62.805890
3.550000	-62.106271
3.555000	-61.180968
3.560000	-60.323371
3.565000	-59.646320
3.570000	-58.495333
3.575000	-57.682873
3.580000	-56.599591
3.585000	-55.222921
3.590000	-54.275050
3.595000	-52.762970
3.600000	-51.702257
3.605000	-49.603400
3.610000	-48.926349
3.615000	-47.707657
3.620000	-45.992462
3.625000	-44.502950
3.630000	-42.878028
3.635000	-41.320812
3.640000	-39.605616
3.645000	-38.048399
3.650000	-35.859268
3.655000	-34.414893
3.660000	-32.699698
3.665000	-30.691114
3.670000	-29.021055
3.675000	-27.057608
3.680000	-25.184434
3.685000	-23.085577
3.690000	-21.076993
3.695000	-19.113545
3.700000	-17.150098
3.705000	-14.848125
3.710000	-12.591289
3.715000	-10.718115
3.720000	-8.528984
3.725000	-6.362422
3.730000	-4.263564
3.735000	-2.458096
3.740000	-0.381806
3.745000	2.033008
3.750000	3.951319
3.755000	6.027608
3.760000	8.284444
3.765000	10.405870
3.770000	12.482159
3.775000	14.490743
3.780000	16.454190
3.785000	18.417637
3.790000	20.629337
3.795000	22.502511
3.800000	24.398253
3.805000	26.451974
3.810000	28.009190
3.815000	29.972638
3.820000	31.687833
3.825000	33.493302
3.830000	35.027950
3.835000	37.171945
3.840000	38.548615
3.845000	40.331515
3.850000	41.888732
3.855000	43.310538
3.860000	44.845187
3.865000	46.244425
3.870000	47.440548
3.875000	48.636671
3.880000	49.945636
3.885000	51.254601
3.890000	52.270177
3.895000	53.330890
3.900000	54.459308
3.905000	55.565158
3.910000	56.309914
3.915000	57.122375
3.920000	57.754289
3.925000	58.431340
3.930000	59.334074
3.935000	59.808010
3.940000	60.304514
3.945000	60.688176
3.950000	61.026701
3.955000	61.342658
3.960000	61.771457
3.965000	61.816594
3.970000	61.997141
3.975000	62.132551
3.980000	62.042277
3.985000	61.929435
3.990000	61.861730
3.995000	61.545773
4.000000	61.365226
4.005000	61.297521
4.010000	60.597902
4.015000	60.214240
4.020000	59.830578
4.025000	59.063254
4.030000	58.431340
4.035000	57.799426
4.040000	57.009533
4.045000	56.264777
4.050000	55.407179
4.055000	54.301330
4.060000	53.534006
4.065000	52.360451
4.070000	51.322306
4.075000	50.103615
4.080000	48.997765
4.085000	47.891916
4.090000	46.605519
4.095000	45.093439
4.100000	43.852179
4.105000	42.633488
4.110000	40.850587
4.115000	39.631896
4.120000	37.645880
4.125000	36.201505
4.130000	34.350900
4.135000	32.816251
4.140000	30.965646
4.145000	29.160177
4.150000	27.422413
4.155000	25.932901
4.160000	23.698634
4.165000	21.983438
4.170000	20.200538
4.175000	18.237091
4.180000	16.115665
4.185000	14.084512
4.190000	12.166202
4.195000	10.293028
4.200000	8.487559
4.205000	6.636953
4.210000	4.470391
4.215000	2.439239
4.220000	0.250108
4.225000	-1.735908
4.230000	-3.879902
4.235000	-5.798213
4.240000	-7.693955
4.245000	-9.928223
4.250000	-11.756260
4.255000	-13.448887
4.260000	-15.525176
4.265000	-17.488623
4.270000	-19.361797
4.275000	-21.302676
4.280000	-22.950166
4.285000	-24.936182
4.290000	-26.696514
4.295000	-28.479415
4.300000	-29.968926
4.305000	-31.074776
4.310000	-33.263907
4.315000	-34.979102
4.320000	-35.904405
4.325000	-38.025831
4.330000	-39.402501
4.335000	-40.237530
4.340000	-41.997862
4.345000	-43.419669
4.350000	-44.864044
4.355000	-45.902189
4.360000	-47.143448
4.365000	-48.294435
4.370000	-49.445421
4.375000	-50.212745
4.380000	-51.566847
4.385000	-52.356740
4.390000	-53.304611
4.395000	-53.868820
4.400000	-54.636144
4.405000	-55.335763
4.410000	-56.012814
4.415000	-56.554455
4.420000	-57.254074
4.425000	-57.637736
4.430000	-58.179376
4.435000	-58.517902
4.440000	-58.653312
4.445000	-58.811291
4.450000	-58.946701
4.455000	-58.833859
4.460000	-59.059542
4.465000	-59.149816
4.470000	-58.901564
4.475000	-58.946701
4.480000	-58.630744
4.485000	-58.608175
4.490000	-58.359923
4.495000	-57.863419
4.500000	-57.276642
4.505000	-56.283634
4.510000	-56.080519
4.515000	-55.787130
4.520000	-55.110079
4.525000	-54.591007
4.530000	-53.485158
4.535000	-52.808107
4.540000	-52.085919
4.545000	-51.228322
4.550000	-49.896788
4.555000	-49.174601
4.560000	-48.023614
4.565000	-46.895196
4.570000	-45.586232
4.575000	-44.525519
4.580000	-43.058575
4.585000	-41.817315
4.590000	-40.598624
4.595000	-39.154249
4.600000	-37.642169
4.605000	-35.678722
4.610000	-34.618009
4.615000	-33.218770
4.620000	-31.616417
4.625000	-29.698106
4.630000	-28.366573
4.635000	-26.628809
4.640000	-25.026456
4.645000	-23.288692
4.650000	-21.550928
4.655000	-19.361797
4.660000	-17.646602
4.665000	-15.999112
4.670000	-14.351621
4.675000	-12.546153
4.680000	-10.515000
4.685000	-8.528984
4.690000	-6.497832
4.695000	-4.647227
4.700000	-2.774053
4.705000	-0.833174
4.710000	0.904590
4.715000	2.980879
4.720000	4.944326
4.725000	6.727227
4.730000	8.713243
4.735000	10.541280
4.740000	12.030792
4.745000	13.813692
4.750000	16.002823
4.755000	17.718018
4.760000	19.342940
4.765000	21.012999
4.770000	22.953878
4.775000	24.420821
4.780000	26.316563
4.785000	27.715802
4.790000	29.295587
4.795000	31.055919
4.800000	32.455157
4.805000	34.147784
4.810000	35.501886
4.815000	36.765714
4.820000	37.961837
4.825000	39.564191
4.830000	40.579767
4.835000	41.888732
4.840000	43.084855
4.845000	44.122999
4.850000	45.183712
4.855000	46.492677
4.860000	47.305138
4.865000	47.982189
4.870000	48.794650
4.875000	49.855363
4.880000	50.239025
4.885000	51.119191
4.890000	51.705968
4.895000	52.270177
4.900000	52.856955
4.905000	53.488869
4.910000	53.534006
4.915000	54.053078
4.920000	54.188488
4.925000	54.301330
4.930000	54.436740
4.935000	54.527013
4.940000	54.684992
4.945000	54.481877
4.950000	54.369035
4.955000	54.436740
4.960000	54.165920
4.965000	53.985373
4.970000	53.601711
4.975000	53.172912
4.980000	52.856955
4.985000	52.405588
4.990000	51.660832
4.995000	51.209464
5.000000	50.487277
5.005000	50.193888
5.010000	49.133175
5.015000	48.343283
5.020000	47.621095
5.025000	46.673224
5.030000	45.522238
5.035000	44.642072
5.040000	43.423380
5.045000	42.452941
5.050000	41.234249
5.055000	39.925284
5.060000	38.887140
5.065000	37.397628
5.070000	36.111232
5.075000	34.802267
5.080000	33.199913
5.085000	31.710401
5.090000	30.469142
5.095000	28.708810
5.100000	27.399845
5.105000	25.955470
5.110000	24.037159
5.115000	22.547647
5.120000	20.719610
5.125000	19.049551
5.130000	17.424630
5.135000	15.799708
5.140000	13.926534
5.145000	12.008223
5.150000	10.496143
5.155000	8.848653
5.160000	6.952911
